Oscilloscope Trace Export		
Festo Didactic LVDAC-EMS 3.19		
		
		
		Ch1		Ch2		Ch3		Ch4		Ch5		Ch6		Ch7		Ch8		
Time 		E1		I1		E2		Off		E3		Off		Off		Off		
(ms)		(V)		(A)		(V)		()		(V)		()		()		()		
0.000		4.8		-0.004		207.4				-204.8								
0.098		13.6		-0.013		203.9				-200.9								
0.195		22.4		-0.008		205.3				-204.3								
0.293		28.1		0.004		206.1				-204.3								
0.391		33.3		-0.004		205.3				-202.6								
0.488		41.2		-0.002		206.6				-203.0								
0.586		46.1		-0.008		205.7				-200.9								
0.684		54.8		0.000		206.6				-200.4								
0.781		61.8		-0.006		207.4				-201.7								
0.879		68.9		0.000		207.9				-203.0								
0.977		75.0		-0.006		205.3				-202.6								
1.074		79.4		-0.015		203.9				-207.8								
1.172		88.6		-0.002		205.7				-205.6								
1.270		94.3		-0.011		203.5				-206.0								
1.367		97.8		-0.006		204.4				-208.6								
1.465		103.1		-0.011		205.7				-208.2								
1.563		107.9		0.002		205.3				-209.9								
1.660		113.6		0.004		205.3				-210.8								
1.758		117.5		-0.006		203.5				-209.9								
1.855		118.9		0.006		205.3				-212.5								
1.953		123.7		-0.004		201.8				-213.8								
2.051		129.8		-0.021		203.9				-213.8								
2.148		130.7		-0.011		203.1				-215.1								
2.246		137.7		-0.002		205.3				-213.4								
2.344		141.2		-0.011		201.8				-213.8								
2.441		145.6		0.002		206.6				-219.9								
2.539		149.6		0.002		205.3				-216.8								
2.637		155.3		-0.017		203.5				-217.3								
2.734		158.8		-0.002		202.2				-215.6								
2.832		162.7		0.000		202.6				-216.4								
2.930		166.7		-0.004		201.8				-215.1								
3.027		173.7		-0.017		203.1				-214.7								
3.125		173.2		0.004		202.2				-216.0								
3.223		178.5		-0.019		201.3				-214.7								
3.320		181.1		-0.008		202.2				-213.8								
3.418		182.5		-0.013		202.6				-214.7								
3.516		187.7		-0.006		200.4				-216.8								
3.613		189.9		-0.006		202.6				-213.8								
3.711		195.6		-0.006		202.2				-214.3								
3.809		197.8		-0.008		199.1				-214.7								
3.906		199.6		-0.013		201.8				-214.3								
4.004		199.6		0.008		203.1				-214.3								
4.102		201.8		0.000		202.6				-211.7								
4.199		203.9		-0.008		201.8				-212.5								
4.297		203.1		0.002		202.6				-213.0								
4.395		201.3		-0.006		201.8				-211.7								
4.492		200.9		0.002		204.8				-214.3								
4.590		201.8		-0.004		200.9				-213.0								
4.688		207.5		-0.013		201.3				-211.7								
4.785		205.7		-0.015		202.2				-212.5								
4.883		202.6		-0.006		205.3				-213.0								
4.980		203.9		-0.011		200.4				-211.7								
5.078		206.6		-0.004		203.1				-214.3								
5.176		207.5		-0.013		206.6				-210.8								
5.273		207.5		0.004		207.0				-209.1								
5.371		207.9		0.011		209.2				-213.4								
5.469		208.3		-0.011		207.9				-209.9								
5.566		207.0		-0.004		205.7				-212.1								
5.664		210.1		0.000		210.1				-209.5								
5.762		209.6		-0.013		208.3				-212.1								
5.859		208.3		-0.011		209.6				-210.4								
5.957		210.5		-0.013		209.2				-212.1								
6.055		203.9		0.008		207.0				-212.1								
6.152		199.1		0.004		206.6				-210.8								
6.250		192.5		-0.008		206.6				-211.2								
6.348		188.6		-0.011		207.4				-210.4								
6.445		185.5		-0.015		206.1				-208.6								
6.543		180.3		0.002		208.3				-210.4								
6.641		174.6		-0.013		206.1				-212.5								
6.738		173.7		0.002		207.4				-211.7								
6.836		170.2		-0.004		207.0				-209.9								
6.934		164.5		0.004		210.9				-209.9								
7.031		158.3		-0.004		207.9				-209.1								
7.129		157.5		-0.015		206.1				-211.7								
7.227		150.0		0.002		207.0				-209.9								
7.324		145.6		-0.006		207.4				-210.4								
7.422		141.7		-0.004		207.9				-209.9								
7.520		139.5		0.000		207.4				-208.2								
7.617		131.1		0.006		205.3				-208.6								
7.715		126.8		0.006		207.4				-210.8								
7.813		123.7		-0.013		204.8				-207.3								
7.910		116.2		0.002		207.9				-206.0								
8.008		116.2		-0.006		204.4				-206.5								
8.105		111.4		-0.008		204.4				-207.8								
8.203		104.8		-0.017		203.9				-209.9								
8.301		100.4		-0.008		203.1				-205.6								
8.398		96.5		0.006		207.4				-209.9								
8.496		89.0		-0.002		206.1				-205.6								
8.594		86.4		-0.006		203.9				-205.6								
8.691		78.1		-0.002		209.6				-208.6								
8.789		76.8		-0.008		202.6				-210.4								
8.887		71.9		0.008		204.8				-209.9								
8.984		64.9		0.006		205.7				-207.8								
9.082		55.3		-0.015		203.5				-208.6								
9.180		48.7		-0.017		201.8				-208.6								
9.277		42.5		-0.002		206.1				-208.6								
9.375		32.5		-0.008		201.8				-207.3								
9.473		28.5		-0.002		206.6				-210.8								
9.570		23.7		-0.011		201.8				-206.5								
9.668		17.1		0.004		204.8				-207.3								
9.766		8.3		-0.011		201.3				-206.5								
9.863		4.4		-0.008		201.8				-207.8								
9.961		-4.4		-0.017		203.9				-206.0								
10.059		-13.2		-0.021		204.4				-206.9								
10.156		-19.7		0.000		203.5				-205.2								
10.254		-28.9		-0.013		201.8				-206.5								
10.352		-33.3		-0.015		200.9				-205.2								
10.449		-43.0		0.000		200.4				-206.0								
10.547		-46.5		-0.006		201.3				-203.9								
10.645		-53.1		-0.006		203.1				-205.6								
10.742		-60.5		-0.002		202.6				-204.8								
10.840		-68.0		-0.004		201.8				-205.6								
10.938		-74.6		-0.021		203.5				-202.6								
11.035		-81.6		-0.013		204.8				-206.9								
11.133		-85.1		-0.019		200.9				-203.0								
11.230		-93.0		-0.021		205.3				-204.8								
11.328		-98.2		-0.002		207.4				-206.0								
11.426		-100.4		-0.019		209.2				-203.0								
11.523		-108.3		-0.011		211.4				-204.8								
11.621		-111.0		-0.008		211.8				-205.6								
11.719		-115.8		-0.015		209.6				-203.5								
11.816		-120.2		-0.019		211.4				-206.0								
11.914		-125.0		-0.004		212.7				-202.2								
12.012		-128.9		0.002		213.6				-207.3								
12.109		-132.9		-0.008		214.4				-203.9								
12.207		-138.6		0.002		213.6				-202.2								
12.305		-141.7		-0.013		212.3				-203.0								
12.402		-147.4		-0.017		214.0				-203.0								
12.500		-150.9		0.000		215.3				-201.3								
12.598		-154.8		-0.008		214.0				-204.3								
12.695		-159.6		-0.023		214.9				-203.5								
12.793		-161.4		-0.013		210.9				-204.8								
12.891		-168.4		-0.008		214.0				-202.2								
12.988		-168.9		-0.008		212.3				-200.9								
13.086		-172.8		-0.008		215.8				-202.6								
13.184		-178.1		-0.015		212.7				-204.8								
13.281		-180.7		-0.011		211.4				-203.5								
13.379		-184.6		-0.013		213.1				-203.9								
13.477		-189.0		-0.002		212.3				-200.4								
13.574		-192.5		-0.004		213.1				-203.5								
13.672		-193.4		-0.008		209.2				-200.4								
13.770		-193.4		0.000		213.6				-200.4								
13.867		-199.6		-0.006		213.6				-205.6								
13.965		-198.7		-0.015		211.8				-202.6								
14.063		-201.8		-0.017		210.1				-200.9								
14.160		-201.8		-0.011		212.7				-201.7								
14.258		-201.3		-0.015		210.1				-200.4								
14.355		-203.5		-0.015		212.3				-203.5								
14.453		-204.8		-0.023		213.1				-200.9								
14.551		-204.8		-0.006		210.1				-204.3								
14.648		-205.3		0.002		210.5				-203.5								
14.746		-205.7		-0.004		209.6				-204.8								
14.844		-204.4		-0.002		213.6				-203.5								
14.941		-207.5		-0.021		211.8				-204.3								
15.039		-207.5		-0.004		210.5				-204.3								
15.137		-204.4		-0.013		212.3				-206.0								
15.234		-208.8		-0.013		209.2				-209.5								
15.332		-211.0		0.000		210.9				-210.4								
15.430		-207.9		0.002		211.8				-208.6								
15.527		-210.1		-0.008		210.1				-211.7								
15.625		-211.0		0.004		212.7				-209.1								
15.723		-213.2		-0.004		209.2				-209.1								
15.820		-211.8		-0.004		211.4				-210.4								
15.918		-214.5		-0.019		209.2				-209.9								
16.016		-206.1		-0.011		209.2				-209.5								
16.113		-202.6		-0.011		211.4				-208.2								
16.211		-197.4		-0.011		211.4				-209.9								
16.309		-193.9		-0.004		208.3				-211.7								
16.406		-189.5		-0.006		209.2				-208.6								
16.504		-185.1		-0.006		209.6				-210.8								
16.602		-180.3		-0.015		207.9				-211.2								
16.699		-175.9		0.002		208.3				-210.4								
16.797		-170.6		-0.015		205.7				-209.5								
16.895		-167.5		0.000		210.5				-210.4								
16.992		-160.5		0.004		210.1				-208.6								
17.090		-158.3		-0.023		209.2				-208.6								
17.188		-153.5		0.008		207.4				-206.5								
17.285		-146.9		-0.006		205.7				-207.8								
17.383		-144.7		-0.008		208.3				-206.5								
17.480		-139.0		-0.021		209.6				-206.9								
17.578		-135.1		-0.017		209.6				-208.6								
17.676		-131.6		-0.006		206.6				-207.8								
17.773		-125.0		-0.023		209.2				-206.9								
17.871		-121.1		-0.008		208.3				-206.5								
17.969		-117.5		-0.006		205.3				-208.6								
18.066		-111.0		-0.011		205.7				-206.5								
18.164		-109.2		-0.006		207.9				-207.8								
18.262		-102.6		-0.008		204.4				-205.2								
18.359		-99.6		-0.011		207.9				-205.2								
18.457		-94.3		-0.013		206.1				-206.0								
18.555		-85.5		-0.011		207.4				-204.8								
18.652		-82.5		-0.019		205.3				-205.2								
18.750		-76.3		-0.006		209.2				-205.2								
18.848		-71.9		0.000		207.0				-204.8								
18.945		-66.2		-0.008		203.5				-206.5								
19.043		-60.5		-0.017		207.4				-203.5								
19.141		-53.5		-0.023		206.1				-206.0								
19.238		-46.1		-0.004		208.8				-206.5								
19.336		-36.4		-0.013		207.4				-205.6								
19.434		-31.1		-0.002		205.3				-203.9								
19.531		-25.4		-0.021		205.3				-206.5								
19.629		-20.6		-0.004		205.7				-205.6								
19.727		-13.6		-0.002		207.4				-206.0								
19.824		-7.9		-0.015		205.7				-206.0								
19.922		1.3		0.004		204.8				-203.9								
20.020		9.2		-0.004		204.8				-207.3								
20.117		16.2		-0.002		208.3				-204.8								
20.215		20.6		-0.008		206.1				-205.6								
20.313		32.5		-0.004		205.3				-204.3								
20.410		37.3		-0.019		203.9				-204.8								
20.508		46.1		-0.002		202.2				-202.6								
20.605		48.7		-0.013		205.7				-204.3								
20.703		59.2		-0.008		204.4				-203.9								
20.801		63.6		-0.019		204.4				-204.3								
20.898		72.8		0.011		205.3				-203.9								
20.996		78.9		-0.006		203.1				-202.6								
21.094		86.4		-0.011		204.4				-205.2								
21.191		86.8		0.000		205.3				-206.0								
21.289		91.2		-0.011		204.4				-207.8								
21.387		100.0		-0.011		205.7				-207.3								
21.484		104.4		0.000		204.8				-210.4								
21.582		108.3		-0.004		202.6				-211.2								
21.680		112.7		-0.006		206.1				-211.2								
21.777		118.4		-0.013		200.9				-210.8								
21.875		122.4		-0.004		203.1				-212.1								
21.973		127.6		-0.006		201.3				-216.0								
22.070		134.2		0.002		202.2				-212.5								
22.168		136.4		-0.004		203.9				-216.0								
22.266		138.2		0.000		205.7				-215.6								
22.363		143.9		0.000		203.9				-215.1								
22.461		147.8		0.000		203.9				-215.1								
22.559		150.4		-0.011		201.8				-215.1								
22.656		155.3		-0.006		203.5				-218.6								
22.754		160.5		-0.008		202.2				-215.6								
22.852		163.2		-0.008		200.4				-216.0								
22.949		168.4		0.004		203.5				-214.3								
23.047		173.7		-0.006		203.5				-214.7								
23.145		175.4		-0.021		200.9				-212.1								
23.242		179.8		-0.008		198.7				-215.1								
23.340		183.3		-0.006		202.2				-217.7								
23.438		187.3		0.002		203.9				-213.4								
23.535		190.4		-0.006		200.9				-214.7								
23.633		190.8		-0.008		201.8				-212.1								
23.730		195.2		-0.011		200.0				-215.1								
23.828		196.9		-0.004		204.4				-213.8								
23.926		199.1		0.002		202.6				-213.8								
24.023		199.6		-0.013		200.4				-213.4								
24.121		203.1		-0.015		199.6				-215.1								
24.219		202.6		-0.015		201.8				-213.0								
24.316		200.9		-0.011		200.4				-211.2								
24.414		201.8		-0.004		201.8				-211.7								
24.512		200.9		-0.006		200.4				-213.8								
24.609		200.9		-0.011		203.9				-213.0								
24.707		203.5		-0.002		202.6				-211.7								
24.805		205.3		0.000		207.0				-215.6								
24.902		207.0		-0.011		203.5				-211.7								
25.000		207.9		0.000		205.3				-212.5								
25.098		207.5		-0.006		205.7				-211.2								
25.195		206.1		0.002		206.6				-214.7								
25.293		207.9		-0.002		207.0				-212.1								
25.391		205.3		-0.002		209.6				-210.8								
25.488		205.3		-0.004		205.7				-211.2								
25.586		209.2		-0.006		207.4				-211.7								
25.684		210.1		0.002		207.4				-211.2								
25.781		210.5		0.006		209.2				-212.1								
25.879		208.8		-0.004		209.2				-211.7								
25.977		209.2		-0.002		208.8				-211.2								
26.074		203.5		-0.019		207.4				-213.0								
26.172		196.1		-0.025		208.3				-211.2								
26.270		193.9		-0.008		210.1				-211.7								
26.367		186.4		-0.008		207.4				-210.8								
26.465		179.4		-0.002		209.2				-209.9								
26.563		179.4		-0.006		206.6				-210.4								
26.660		171.5		-0.008		207.4				-213.0								
26.758		168.4		0.002		208.3				-209.5								
26.855		169.7		-0.008		207.0				-211.2								
26.953		163.2		-0.011		207.4				-208.6								
27.051		160.5		-0.008		206.6				-209.1								
27.148		154.4		-0.017		204.4				-210.4								
27.246		150.4		0.000		208.8				-212.1								
27.344		145.2		-0.002		204.4				-209.9								
27.441		137.7		-0.006		205.3				-208.2								
27.539		133.3		-0.004		204.8				-209.5								
27.637		131.6		-0.004		206.1				-209.1								
27.734		126.8		-0.008		205.7				-206.5								
27.832		120.2		0.000		208.8				-211.2								
27.930		118.4		0.002		205.7				-210.8								
28.027		112.3		-0.004		204.4				-210.4								
28.125		107.9		-0.011		206.1				-207.3								
28.223		104.4		0.004		205.7				-209.1								
28.320		98.2		-0.013		205.3				-206.9								
28.418		93.0		-0.006		204.4				-205.6								
28.516		87.3		0.006		205.7				-207.3								
28.613		83.8		-0.008		202.6				-206.0								
28.711		78.5		0.006		206.6				-209.5								
28.809		71.9		-0.017		205.3				-209.9								
28.906		68.0		-0.004		205.3				-207.3								
29.004		61.8		0.000		205.3				-210.8								
29.102		52.2		-0.004		202.2				-208.2								
29.199		46.9		-0.013		205.3				-208.6								
29.297		37.3		-0.006		203.1				-207.8								
29.395		32.9		-0.019		203.5				-209.9								
29.492		26.3		-0.002		206.1				-208.6								
29.590		21.1		-0.006		202.6				-205.2								
29.688		14.9		0.002		206.1				-208.6								
29.785		7.0		0.000		206.1				-204.8								
29.883		-0.9		-0.013		202.6				-205.2								
29.980		-9.2		-0.004		203.1				-205.2								
30.078		-14.9		0.000		207.4				-206.0								
30.176		-24.1		-0.015		203.1				-208.2								
30.273		-31.6		-0.013		202.2				-202.2								
30.371		-37.7		-0.004		200.9				-205.6								
30.469		-43.0		-0.015		203.1				-204.8								
30.566		-49.1		-0.006		200.4				-207.8								
30.664		-57.9		-0.008		200.4				-206.5								
30.762		-64.0		-0.015		202.6				-207.3								
30.859		-71.1		-0.008		203.9				-205.2								
30.957		-76.3		-0.004		202.2				-206.0								
31.055		-82.5		-0.006		203.5				-207.3								
31.152		-87.3		-0.013		204.8				-205.6								
31.250		-95.2		0.006		205.7				-206.9								
31.348		-99.6		-0.019		204.8				-204.8								
31.445		-104.8		-0.006		208.8				-206.0								
31.543		-109.6		-0.011		208.3				-205.2								
31.641		-116.2		-0.013		207.9				-201.7								
31.738		-119.3		-0.002		211.4				-204.3								
31.836		-125.0		-0.015		213.1				-203.0								
31.934		-127.6		-0.015		210.5				-206.9								
32.031		-132.9		-0.015		213.1				-203.0								
32.129		-135.1		-0.002		212.7				-206.5								
32.227		-142.1		-0.021		210.1				-202.2								
32.324		-144.3		-0.006		214.0				-204.8								
32.422		-145.6		-0.019		215.3				-203.9								
32.520		-150.9		-0.013		214.4				-201.3								
32.617		-155.7		-0.021		215.8				-202.6								
32.715		-161.0		-0.023		213.6				-203.0								
32.813		-165.4		-0.006		213.6				-203.0								
32.910		-167.5		-0.008		215.3				-205.6								
33.008		-171.5		-0.013		210.9				-202.2								
33.105		-177.6		-0.002		214.0				-203.9								
33.203		-180.3		-0.017		214.9				-205.2								
33.301		-184.2		0.008		216.6				-200.0								
33.398		-188.6		-0.004		211.4				-204.8								
33.496		-191.2		-0.011		213.1				-202.6								
33.594		-192.1		-0.017		212.3				-201.3								
33.691		-193.4		-0.002		214.4				-203.0								
33.789		-197.8		-0.002		213.6				-201.7								
33.887		-198.2		-0.008		213.1				-202.6								
33.984		-199.6		0.002		213.6				-199.6								
34.082		-199.6		0.000		212.3				-201.3								
34.180		-201.8		0.004		210.9				-203.5								
34.277		-204.8		-0.017		210.9				-201.7								
34.375		-204.8		-0.004		210.5				-201.3								
34.473		-201.3		0.000		212.7				-203.9								
34.570		-205.7		-0.002		214.0				-203.5								
34.668		-204.8		-0.017		211.4				-204.8								
34.766		-203.9		-0.008		213.6				-203.0								
34.863		-210.1		-0.013		213.6				-206.9								
34.961		-209.2		-0.008		209.6				-204.8								
35.059		-209.6		-0.015		211.4				-207.8								
35.156		-210.1		0.000		212.7				-207.8								
35.254		-209.2		-0.006		210.9				-206.5								
35.352		-208.8		-0.011		209.6				-206.9								
35.449		-209.6		-0.002		210.5				-208.6								
35.547		-212.3		-0.011		210.1				-209.9								
35.645		-208.3		-0.004		213.1				-207.3								
35.742		-211.4		-0.015		210.9				-209.1								
35.840		-212.3		0.002		210.5				-208.6								
35.938		-211.0		-0.006		211.8				-208.6								
36.035		-204.4		0.000		210.1				-210.4								
36.133		-200.0		-0.011		209.6				-211.2								
36.230		-192.1		-0.004		208.8				-209.9								
36.328		-190.4		-0.013		209.6				-209.9								
36.426		-185.5		-0.008		207.9				-210.4								
36.523		-182.9		0.004		212.3				-208.2								
36.621		-177.2		-0.002		207.9				-206.9								
36.719		-171.5		-0.013		206.1				-208.2								
36.816		-168.0		-0.008		206.1				-205.6								
36.914		-162.7		-0.006		212.3				-209.5								
37.012		-161.0		-0.019		207.4				-209.9								
37.109		-157.0		-0.006		209.2				-208.2								
37.207		-151.3		-0.013		207.4				-206.0								
37.305		-145.2		-0.008		209.2				-209.1								
37.402		-141.7		-0.008		208.8				-206.9								
37.500		-138.2		-0.002		207.0				-206.5								
37.598		-134.2		-0.011		207.0				-207.3								
37.695		-130.3		-0.002		210.9				-206.0								
37.793		-124.6		-0.011		205.3				-208.6								
37.891		-121.1		-0.008		207.0				-206.9								
37.988		-115.8		-0.015		208.3				-206.5								
38.086		-114.0		-0.021		206.6				-205.2								
38.184		-106.6		-0.006		207.4				-208.6								
38.281		-100.4		-0.015		205.7				-204.8								
38.379		-95.6		-0.011		207.9				-205.2								
38.477		-89.9		0.004		206.6				-206.0								
38.574		-88.2		-0.006		208.8				-205.2								
38.672		-79.8		-0.019		207.9				-205.6								
38.770		-74.1		-0.013		207.4				-205.2								
38.867		-71.5		-0.015		203.9				-201.7								
38.965		-63.2		-0.019		207.9				-204.8								
39.063		-57.0		-0.011		207.0				-204.8								
39.160		-53.9		-0.002		209.6				-205.6								
39.258		-44.3		-0.017		204.4				-204.3								
39.355		-38.2		-0.019		209.2				-205.6								
39.453		-31.6		-0.015		207.0				-202.2								
39.551		-21.5		-0.006		206.1				-205.2								
39.648		-18.0		-0.015		206.6				-206.0								
39.746		-9.6		-0.015		203.5				-204.3								
39.844		-5.3		0.000		206.6				-204.3								
39.941		1.8		0.004		207.9				-205.2								
40.039		10.5		-0.011		206.1				-203.5								
40.137		21.5		0.004		205.3				-203.9								
40.234		27.6		-0.011		204.8				-204.8								
40.332		33.3		-0.004		203.9				-203.0								
40.430		39.5		-0.011		204.4				-203.9								
40.527		46.9		0.000		206.1				-202.6								
40.625		55.7		0.008		203.1				-204.3								
40.723		59.2		0.011		205.7				-204.3								
40.820		66.2		0.006		205.7				-204.3								
40.918		72.4		-0.011		203.1				-202.6								
41.016		81.1		0.006		202.6				-204.8								
41.113		85.5		-0.008		203.5				-207.8								
41.211		93.4		-0.006		203.1				-206.5								
41.309		97.4		0.002		203.9				-206.0								
41.406		100.4		0.004		203.5				-206.5								
41.504		105.7		-0.021		201.8				-209.1								
41.602		110.5		-0.008		201.8				-208.2								
41.699		114.0		-0.006		203.9				-209.5								
41.797		118.0		-0.002		203.9				-213.8								
41.895		125.9		-0.017		203.1				-213.0								
41.992		128.9		0.000		205.7				-213.4								
42.090		134.2		0.004		203.1				-213.4								
42.188		135.5		-0.015		205.3				-216.8								
42.285		141.2		-0.011		202.2				-214.7								
42.383		144.3		-0.008		206.6				-215.6								
42.480		146.5		-0.011		204.4				-216.8								
42.578		155.3		-0.011		201.8				-214.3								
42.676		157.9		-0.019		205.3				-216.8								
42.773		163.6		-0.004		202.6				-214.3								
42.871		165.8		-0.006		201.3				-218.1								
42.969		170.2		-0.011		203.5				-218.1								
43.066		174.6		0.006		203.5				-216.4								
43.164		176.8		-0.011		201.3				-219.0								
43.262		182.5		-0.006		201.3				-212.5								
43.359		182.0		-0.015		200.4				-214.7								
43.457		187.3		-0.006		199.6				-215.6								
43.555		188.2		0.004		200.9				-212.5								
43.652		189.9		0.004		203.5				-217.3								
43.750		193.9		-0.015		200.9				-214.7								
43.848		197.4		-0.011		200.9				-214.7								
43.945		200.0		-0.017		196.9				-213.8								
44.043		203.9		-0.006		201.8				-213.0								
44.141		200.0		-0.006		200.4				-213.4								
44.238		200.0		-0.008		201.3				-213.0								
44.336		201.3		-0.004		198.2				-214.7								
44.434		203.5		0.002		200.0				-213.0								
44.531		200.4		-0.006		200.9				-212.1								
44.629		201.8		-0.004		203.1				-213.8								
44.727		204.8		0.002		204.4				-215.6								
44.824		202.6		-0.019		204.4				-213.0								
44.922		205.3		-0.008		205.3				-211.2								
45.020		207.5		-0.011		205.3				-210.8								
45.117		206.1		-0.002		207.9				-210.8								
45.215		207.9		0.006		206.1				-212.1								
45.313		210.5		-0.008		205.3				-215.6								
45.410		207.0		-0.008		209.2				-208.2								
45.508		211.8		-0.008		208.8				-212.5								
45.605		210.1		-0.008		206.6				-209.9								
45.703		208.8		-0.008		209.2				-211.2								
45.801		208.8		-0.008		210.9				-211.7								
45.898		208.8		-0.013		207.4				-214.7								
45.996		203.5		-0.004		206.6				-210.4								
46.094		200.0		-0.008		208.3				-208.6								
46.191		196.5		0.000		209.6				-211.7								
46.289		189.9		0.008		208.8				-209.9								
46.387		184.6		-0.002		208.8				-209.9								
46.484		182.9		-0.008		206.1				-208.6								
46.582		175.4		-0.008		205.3				-208.6								
46.680		171.1		0.000		207.4				-210.4								
46.777		164.5		-0.006		207.0				-212.5								
46.875		162.7		0.006		208.3				-208.6								
46.973		160.5		-0.006		208.3				-210.8								
47.070		155.7		-0.004		206.6				-209.9								
47.168		151.8		-0.011		203.9				-209.9								
47.266		147.8		-0.004		207.4				-209.1								
47.363		140.4		0.004		207.4				-208.6								
47.461		136.8		-0.006		204.8				-210.4								
47.559		135.1		0.000		205.7				-208.2								
47.656		128.1		-0.006		204.8				-207.8								
47.754		125.9		0.000		206.6				-210.4								
47.852		120.6		-0.011		204.8				-208.6								
47.949		114.9		-0.013		206.1				-206.0								
48.047		111.4		-0.006		207.4				-206.9								
48.145		106.6		-0.004		204.8				-208.2								
48.242		99.1		-0.004		203.9				-209.1								
48.340		95.6		-0.008		203.5				-209.9								
48.438		93.4		-0.015		203.9				-212.5								
48.535		86.8		-0.006		203.9				-209.1								
48.633		81.6		-0.011		203.1				-207.8								
48.730		75.0		-0.011		207.4				-210.8								
48.828		69.3		0.002		204.8				-208.6								
48.926		64.5		-0.011		203.1				-206.9								
49.023		57.5		0.000		208.3				-207.3								
49.121		50.9		-0.013		204.4				-207.8								
49.219		43.0		-0.008		203.5				-210.4								
49.316		38.2		-0.013		205.7				-206.9								
49.414		31.6		0.002		204.4				-208.2								
49.512		22.4		-0.004		205.3				-209.1								
49.609		14.9		-0.013		202.6				-206.9								
49.707		11.8		0.004		206.1				-208.6								
49.805		4.8		-0.015		202.6				-207.8								
49.902		-2.2		-0.002		202.6				-208.2								
